 UNICAS data file          : CPT_18 (at 58 m below ML).000           
 Output using command file : Qc+Qt+Qn+Fs+U2+Rf+Bq.ucf

 ASCII file created at : date          :03-Jul-2015
                         time          :11:13:12
 Project number                        :N6016/01 (3)                                                                                        
 Date of testing                       :15-Apr-2015                                                                                         
 Location                              :BH-WFS1-1                                                                                           
 Test name                             :CPT18
 Penetrometer                          :CP10-CF50PB10
 Serial no                             :1706-1913

 Table description:
 Column id                             :Parameter name
 ___________________________________________________________________________________
 Rec                                   :Record ID, Record ID [-]
 Depth                                 :Depth, Depth [m]
 Time                                  :Time, Time [s]
 Cone                                  :Cone Resistance, Cone Resistance [MPa]
 Qnet-                                 :Net Cone Resistance, Net Cone Resistance [MPa], unit weight as specified in ground model
 qt                                    :Total Cone Resistance, Total Cone Resistance [MPa]
 Friction                              :Sleeve Friction, Sleeve Friction [MPa]
 Pore 2                                :Porewater Pressure, Porewater Pressure at Shoulder [MPa]
 Bq                                    :Porewater Pressure Ratio, Porewater Pressure Ratio [-], unit weight as specified in ground model
 Fric_ratio                            :Friction Ratio, Friction Ratio [%]


 Data table:
  Rec    Depth      Time       Cone      Qnet-         qt   Friction     Pore 2         Bq Fric_ratio           
   No        m         s        MPa        MPa        MPa        MPa        MPa          -          %           
    1   58.000    176.88     3.5015     2.5447     3.6739                           0.0431                      
    2   58.020    177.83     4.1434     3.2697     4.3994                1.2393     0.1354                      
    3   58.040    178.77     4.3202     3.6701     4.8001                2.0350     0.3652                      
    4   58.060    179.71     4.2022     3.6111     4.7415     0.1603     2.2012     0.4365     3.8566           
    5   58.080    180.65     4.4867     3.9626     5.0934     0.1513     2.5364     0.4654     3.4483           
    6   58.100    181.58     4.6711     4.2240     5.3552     0.1410     2.8028     0.5101     3.0696           
    7   58.120    182.52     4.8745     4.5105     5.6421     0.1382     3.1622     0.5518     2.8558           
    8   58.140    183.46     4.8336     4.5036     5.6356     0.1377     3.2372     0.5832     2.8452           
    9   58.160    184.39     4.9799     4.6796     5.8120     0.1395     3.3802     0.5869     2.8295           
   10   58.180    185.33     4.8947     4.6107     5.7434     0.1361     3.3847     0.6101     2.7716           
   11   58.200    186.27     4.9555     4.6798     5.8130     0.1351     3.4571     0.6086     2.7401           
   12   58.220    187.20     4.9667     4.7116     5.8451     0.1340     3.5224     0.6222     2.7051           
   13   58.240    188.14     4.9778     4.7195     5.8535     0.1343     3.5022     0.6187     2.6967           
   14   58.260    189.07     4.8382     4.5653     5.6996     0.1315     3.3872     0.6271     2.6823           
   15   58.280    190.00     4.7216     4.4176     5.5523     0.1280     3.3101     0.6203     2.6886           
   16   58.300    190.93     4.6762     4.3618     5.4969     0.1239     3.2851     0.6190     2.6454           
   17   58.320    191.86     4.6737     4.3534     5.4889     0.1216     3.2602     0.6151     2.6055           
   18   58.340    192.79     4.6051     4.2681     5.4040     0.1148     3.1737     0.6120     2.4718           
   19   58.360    193.72     4.6175     4.2654     5.4017     0.1111     3.1271     0.5985     2.4118           
   20   58.380    194.64     4.7183     4.3606     5.4973     0.1109     3.1183     0.5807     2.3795           
   21   58.400    195.55     4.8389     4.4897     5.6268     0.1126     3.1667     0.5719     2.3506           
   22   58.420    196.48     4.8926     4.5433     5.6808     0.1154     3.1654     0.5654     2.3663           
   23   58.440    197.39     5.0257     4.6855     5.8234     0.1161     3.1996     0.5563     2.3594           
   24   58.460    198.31     5.1875     4.8563     5.9946     0.1231     3.2620     0.5444     2.4031           
   25   58.480    199.23     5.2375     4.9423     6.0810     0.1285     3.3832     0.5644     2.4374           
   26   58.500    200.14     5.1974     4.8860     6.0250     0.1328     3.2985     0.5578     2.5571           
   27   58.520    201.06     5.2678     4.9598     6.0992     0.1303     3.3240     0.5526     2.4949           
   28   58.540    201.98     5.4173     5.1394     6.2792     0.1290     3.4686     0.5569     2.4087           
   29   58.560    202.89     5.3963     5.1150     6.2552     0.1274     3.4828     0.5572     2.3529           
   30   58.580    203.80     5.3111     5.0590     6.1996     0.1223     3.5563     0.5867     2.2751           
   31   58.600    204.71     5.1737     4.9198     6.0608     0.1191     3.5398     0.6022     2.2721           
   32   58.620    205.62     5.1205     4.8540     5.9954     0.1182     3.4958     0.6002     2.3008           
   33   58.640    206.53     5.0673     4.7925     5.9343     0.1162     3.4464     0.6013     2.2774           
   34   58.660    207.44     5.0140     4.7114     5.8536     0.1158     3.3385     0.5882     2.2990           
   35   58.680    208.23     4.9836     4.6642     5.8067     0.1158     3.2799     0.5801     2.3190           
   36   58.700    209.25     4.9766     4.6424     5.7853     0.1175     3.2242     0.5704     2.3671           
   37   58.720    210.03     5.0091     4.6694     5.8127     0.1206     3.2113     0.5626     2.4142           
   38   58.740    211.06     5.0063     4.6609     5.8046     0.1239     3.1726     0.5590     2.4719           
   39   58.760    211.87     4.9708     4.6124     5.7565     0.1274     3.1203     0.5539     2.5532           
   40   58.780    212.74     4.9452     4.5657     5.7102     0.1303     3.0494     0.5415     2.6297           
   41   58.800    213.64     4.9378     4.5521     5.6970     0.1319     3.0323     0.5379     2.6693           
   42   58.820    214.62     4.9432     4.5557     5.7009     0.1334     3.0409     0.5362     2.7033           
   43   58.840    215.45     4.9605     4.5766     5.7223     0.1349     3.0402     0.5372     2.7197           
   44   58.860    216.35     4.9850     4.5987     5.7448     0.1356     3.0488     0.5329     2.7286           
   45   58.880    217.25     5.0035     4.6145     5.7609     0.1334     3.0273     0.5289     2.6756           
   46   58.900    218.15     5.0489     4.6577     5.8045     0.1317     3.0210     0.5225     2.6199           
   47   58.920    219.05     5.0634     4.6631     5.8104     0.1324     2.9672     0.5144     2.6179           
   48   58.940    219.95     5.0396     4.6307     5.7783     0.1336     2.9475     0.5108     2.6396           
   49   58.960    220.85     4.9778     4.5515     5.6995     0.1366     2.8425     0.5047     2.7339           
   50   58.980    221.77     5.0698     4.6210     5.7694     0.1380     2.8114     0.4779     2.7562           
   51   59.000    222.68     5.1161     4.6722     5.8210     0.1417     2.8276     0.4772     2.7729           
   52   59.020    223.59     5.1869     4.7508     5.9000     0.1430     2.8563     0.4761     2.7697           
   53   59.040    224.52     5.2947     4.8641     6.0136     0.1468     2.8830     0.4698     2.7847           
   54   59.060    225.44     5.3369     4.9135     6.0635     0.1546     2.8977     0.4713     2.9056           
   55   59.080    226.37     5.7012     5.2643     6.4147     0.1543     2.8431     0.4310     2.8130           
   56   59.100    227.31     6.2387     5.7732     6.9239     0.1512     2.4693     0.3727     2.4447           
   57   59.120    228.26     6.7646     6.0483     7.1994     0.1467     1.0400     0.1896     2.2151           
   58   59.140    229.21     6.4603     5.4568     6.6083     0.1444     0.7081     0.0002     2.1700           
   59   59.160    230.15     5.6888     4.7882     5.9401     0.1502     1.0707     0.0864     2.6170           
   60   59.180    231.09     5.3324     4.4815     5.6338     0.1478     1.2459     0.1371     2.7418           
   61   59.200    232.03     5.1924     4.3733     5.5259     0.1395     1.3572     0.1697     2.6786           
   62   59.220    232.97     5.2085     4.4094     5.5624     0.1389     1.4362     0.1867     2.6759           
   63   59.240    233.93     5.3660     4.5920     5.7454     0.1400     1.5498     0.2014     2.6192           
   64   59.260    234.89     5.4496     4.7046     5.8585     0.1415     1.6698     0.2217     2.5966           
   65   59.280    235.85     5.4510     4.7324     5.8866     0.1430     1.7535     0.2429     2.6240           
   66   59.300    236.83     5.4222     4.7137     5.8684     0.1437     1.7968     0.2528     2.6466           
   67   59.320    237.80     5.3735     4.6664     5.8214     0.1419     1.7951     0.2568     2.6377           
   68   59.340    238.77     5.2754     4.5696     5.7250     0.1420     1.8020     0.2637     2.6872           
   69   59.360    239.76     5.2678     4.5662     5.7220     0.1416     1.8304     0.2679     2.6899           
   70   59.380    240.73     5.3082     4.6225     5.7787     0.1404     1.8970     0.2787     2.6461           
   71   59.400    241.73     5.2870     4.6138     5.7703     0.1385     1.9533     0.2903     2.6179           
   72   59.420    242.71     5.2133     4.5488     5.7058     0.1364     1.9746     0.3025     2.6141           
   73   59.440    243.69     5.1764     4.5267     5.6841     0.1339     2.0822     0.3173     2.5849           
   74   59.460    244.68     5.1153     4.4988     5.6566     0.1331     2.1556     0.3491     2.6006           
   75   59.480    245.67     5.1483     4.5215     5.6796     0.1306     2.1237     0.3385     2.5388           
   76   59.500    246.66     5.1549     4.5273     5.6859     0.1280     2.1221     0.3377     2.4835           
   77   59.520    247.66     5.1623     4.5322     5.6912     0.1292     2.1159     0.3354     2.5026           
   78   59.540    248.65     5.1937     4.5706     5.7299     0.1300     2.1654     0.3389     2.5049           
   79   59.560    249.65     5.2300     4.6219     5.7816     0.1314     2.2134     0.3485     2.5130           
   80   59.580    250.64     5.3254     4.7262     5.8863     0.1297     2.2601     0.3486     2.4382           
   81   59.600    251.63     5.4694     4.8889     6.0493     0.1266     2.3317     0.3525     2.3161           
   82   59.620    252.63     5.5175     4.9416     6.1025     0.1266     2.3459     0.3529     2.2943           
   83   59.640    253.62     5.5222     4.9619     6.1232     0.1266     2.4282     0.3643     2.2917           
   84   59.660    254.62     5.4432     4.8947     6.0563     0.1257     2.4439     0.3792     2.3077           
   85   59.680    255.61     5.3586     4.8033     5.9653     0.1249     2.4260     0.3810     2.3296           
   86   59.700    256.60     5.3211     4.7617     5.9241     0.1272     2.4090     0.3812     2.3913           
   87   59.720    257.60     5.3308     4.7724     5.9352     0.1260     2.4207     0.3815     2.3634           
   88   59.740    258.59     5.3330     4.7736     5.9368     0.1236     2.4081     0.3808     2.3187           
   89   59.760    259.59     5.4227     4.8551     6.0187     0.1228     2.3844     0.3680     2.2683           
   90   59.780    260.57     5.6999     5.1417     6.3057     0.1193     2.4373     0.3551     2.1016           
   91   59.800    261.57     6.1749     5.6313     6.7957     0.1153     2.4929     0.3349     1.8805           
   92   59.820    262.56     6.7804     6.2254     7.3902     0.1171     2.3950     0.2959     1.7363           
   93   59.840    263.55     7.0857     6.4798     7.6450     0.1170     2.1498     0.2531     1.6579           
   94   59.860    264.53     7.2616     6.6310     7.7966     0.1252     2.1548     0.2324     1.7283           
   95   59.880    265.52     7.5386     6.8540     8.0200     0.1334     1.9008     0.1936     1.7759           
   96   59.900    266.51     7.7747     7.0690     8.2354     0.1439     1.9561     0.1759     1.8488           
   97   59.920    267.49     7.8604     7.1506     8.3174     0.1469     1.8338     0.1718     1.8743           
   98   59.940    268.47     7.6747     6.8639     8.0311     0.1508     1.5397     0.1206     1.9494           
   99   59.960    269.45     7.2623     6.4770     7.6446     0.1455     1.5461     0.1436     1.9910           
  100   59.980    270.42     7.2418     6.5224     7.6904     0.1380     1.8870     0.1830     1.9216           
  101   60.000    271.40     7.8447     7.1811     8.3495     0.1243     1.9710     0.1979     1.6135           
  102   60.020    272.38     8.4888     7.8033     8.9721     0.1461     1.8910     0.1709     1.7386           
  103   60.040    273.36     9.0712     8.4132     9.5824     0.1681     1.9414     0.1720     1.8946           
  104   60.060    274.33     9.8806     9.0733    10.2429     0.1757     1.1468     0.0938     1.8117           
  105   60.080    275.29    10.7102     9.6337    10.8037     0.1873     0.2993    -0.0235     1.7949           
  106   60.100    276.26    10.5844     9.4569    10.6273     0.1800     0.1102    -0.0454     1.6634           
  107   60.120    277.20     9.4283     8.2768     9.4476     0.1736     0.0973    -0.0633     1.7651           
  108   60.140    278.13     8.2409     7.1223     8.2935     0.1668     0.2551    -0.0547     1.9309           
  109   60.160    279.06     7.4308     6.3476     7.5192     0.1494     0.3789    -0.0389     1.9403           
  110   60.180    279.99     6.8378     5.7792     6.9512     0.1394     0.4938    -0.0257     2.0401           
  111   60.200    280.93     7.4957     6.4592     7.6316     0.1384     0.5464    -0.0091     1.9071           
  112   60.220    281.89     8.5043     7.4700     8.6428     0.1562     0.5815    -0.0065     1.8690           
  113   60.240    282.86     9.5510     8.4978     9.6710     0.1684     0.4166    -0.0142     1.8285           
  114   60.260    283.82    10.9589     9.8460    11.0196     0.1856     0.2271    -0.0365     1.7473           
  115   60.280    284.77    12.0988    10.9566    12.1306     0.2163     0.0555    -0.0434     1.8351           
  116   60.300    285.73    12.4080    11.2268    12.4012     0.2147    -0.0241    -0.0562     1.7343           
  117   60.320    286.69    12.7866    11.6045    12.7793     0.2122    -0.0436    -0.0545     1.6750           
  118   60.340    287.64    12.2769    11.0828    12.2580     0.2098    -0.0740    -0.0613     1.6751           
  119   60.360    288.57    11.2362    10.0489    11.2245     0.1924    -0.0362    -0.0648     1.6583           
  120   60.380    289.51    10.3624     9.1849    10.3609     0.2052     0.0012    -0.0664     1.9553           
  121   60.400    290.46    10.3184     9.1487    10.3251     0.2118     0.0346    -0.0631     2.0641           
  122   60.420    291.40    10.2742     9.1049    10.2817     0.2103     0.0383    -0.0631     2.0309           
  123   60.440    292.34    10.0049     8.8309    10.0081     0.1923     0.0069    -0.0670     1.9097           
  124   60.460    293.27     9.6222     8.4510     9.6286     0.1821     0.0446    -0.0685     1.8695           
  125   60.480    294.22     9.1867     8.0290     9.2070     0.1941     0.0885    -0.0652     2.0924           
  126   60.500    295.17     9.6154     8.4621     9.6405     0.2015     0.1069    -0.0596     2.1263           
  127   60.520    296.12     9.5783     8.4279     9.6067     0.2048     0.1066    -0.0583     2.1427           
  128   60.540    297.08    10.1800     9.0200    10.1992     0.2130     0.0718    -0.0586     2.1371           
  129   60.560    298.03    10.9914     9.8330    11.0126     0.2192     0.0908    -0.0531     2.0393           
  130   60.580    298.99    12.1958    11.0325    12.2125     0.2211     0.0500    -0.0488     1.8972           
  131   60.600    299.94    13.6589    12.4851    13.6655     0.2248     0.0260    -0.0465     1.6906           
  132   60.620    300.94    15.7261    14.5402    15.7210     0.2346    -0.0619    -0.0430     1.5382           
  133   60.640    302.08    17.6866    16.4742    17.6554     0.2386    -0.1312    -0.0444     1.3598           
  134   60.660    303.32    18.7883    17.5741    18.7557     0.2386    -0.1288    -0.0419     1.2735           
  135   60.680    304.61    19.2917    18.0786    19.2606     0.2440    -0.1229    -0.0405     1.2665           
  136   60.700    305.91    19.4984    18.2864    19.4688     0.2618    -0.1165    -0.0397     1.3445           
  137   60.720    307.21    19.5003    18.2914    19.4742     0.2589    -0.1025    -0.0389     1.3280           
  138   60.740    308.50    19.1228    17.9142    19.0974     0.2350    -0.1022    -0.0396     1.2262           
  139   60.760    309.74    18.4108    17.2023    18.3859     0.2491    -0.0977    -0.0411     1.3383           
  140   60.780    310.95    17.8239    16.6164    17.8004     0.2899    -0.0925    -0.0422     1.6227           
  141   60.800    312.15    17.3223    16.1161    17.3005     0.3268    -0.0853    -0.0431     1.8736           
  142   60.820    313.35    17.0524    15.8451    17.0299               -0.0928    -0.0441                      
  143   60.840    314.41    15.6591    14.4493    15.6345               -0.1008    -0.0490                      
  144   60.860    315.39    13.2651    12.0534    13.2390               -0.1045    -0.0594                      
  145   60.880    316.34    10.6554     9.4426    10.6286               -0.1068    -0.0760                      
  146   60.900    317.28     8.7568     7.5452     8.7316               -0.0969    -0.0941                      
  147   60.915    318.25     6.9025     5.6939     6.8806                          -0.1223                      
 
 
